# Freq(Hz) Magnitude(dB) Phase(degrees)
20 5.99147 -5.55119
20.1503 5.99121 -5.59574
20.3018 5.99095 -5.64068
20.4544 5.99067 -5.68603
20.6082 5.99039 -5.73177
20.7631 5.9901 -5.77792
20.9192 5.9898 -5.82449
21.0765 5.98949 -5.87147
21.2349 5.98917 -5.91887
21.3946 5.98884 -5.96669
21.5554 5.9885 -6.01495
21.7174 5.98815 -6.06364
21.8807 5.98779 -6.11276
22.0452 5.98742 -6.16234
22.2109 5.98704 -6.21236
22.3779 5.98665 -6.26283
22.5461 5.98624 -6.31376
22.7156 5.98583 -6.36515
22.8863 5.9854 -6.41701
23.0584 5.98495 -6.46935
23.2317 5.9845 -6.52216
23.4064 5.98403 -6.57546
23.5823 5.98354 -6.62924
23.7596 5.98304 -6.68352
23.9382 5.98253 -6.73829
24.1182 5.982 -6.79358
24.2995 5.98145 -6.84937
24.4821 5.98089 -6.90568
24.6662 5.98031 -6.9625
24.8516 5.97972 -7.01986
25.0384 5.9791 -7.07775
25.2267 5.97847 -7.13617
25.4163 5.97782 -7.19515
25.6074 5.97715 -7.25467
25.7999 5.97645 -7.31475
25.9938 5.97574 -7.37539
26.1892 5.97501 -7.4366
26.3861 5.97425 -7.49838
26.5845 5.97347 -7.56074
26.7843 5.97267 -7.6237
26.9857 5.97184 -7.68724
27.1885 5.97099 -7.75139
27.3929 5.97012 -7.81614
27.5988 5.96921 -7.88151
27.8063 5.96828 -7.9475
28.0153 5.96732 -8.01411
28.2259 5.96634 -8.08136
28.4381 5.96532 -8.14924
28.6519 5.96427 -8.21778
28.8673 5.96319 -8.28697
29.0843 5.96208 -8.35682
29.3029 5.96094 -8.42734
29.5232 5.95976 -8.49853
29.7452 5.95854 -8.57041
29.9688 5.95729 -8.64298
30.1941 5.95601 -8.71624
30.421 5.95468 -8.79021
30.6497 5.95331 -8.86489
30.8801 5.95191 -8.94029
31.1123 5.95046 -9.01642
31.3462 5.94897 -9.09329
31.5818 5.94743 -9.17089
31.8192 5.94585 -9.24925
32.0584 5.94422 -9.32836
32.2994 5.94254 -9.40824
32.5422 5.94081 -9.48889
32.7869 5.93903 -9.57032
33.0333 5.9372 -9.65254
33.2817 5.93532 -9.73556
33.5319 5.93338 -9.81938
33.7839 5.93138 -9.90401
34.0379 5.92932 -9.98946
34.2938 5.9272 -10.0757
34.5516 5.92502 -10.1629
34.8113 5.92277 -10.2508
35.073 5.92046 -10.3396
35.3367 5.91807 -10.4293
35.6023 5.91562 -10.5198
35.87 5.9131 -10.6113
36.1396 5.9105 -10.7035
36.4113 5.90783 -10.7967
36.685 5.90508 -10.8908
36.9608 5.90225 -10.9858
37.2386 5.89933 -11.0817
37.5186 5.89633 -11.1785
37.8006 5.89324 -11.2763
38.0848 5.89006 -11.375
38.3711 5.88679 -11.4746
38.6595 5.88343 -11.5752
38.9502 5.87996 -11.6767
39.243 5.8764 -11.7792
39.538 5.87273 -11.8826
39.8352 5.86896 -11.9871
40.1346 5.86508 -12.0925
40.4364 5.86108 -12.1989
40.7403 5.85697 -12.3063
41.0466 5.85274 -12.4147
41.3552 5.8484 -12.5241
41.6661 5.84392 -12.6346
41.9793 5.83932 -12.746
42.2949 5.83459 -12.8585
42.6128 5.82972 -12.9719
42.9331 5.82472 -13.0865
43.2559 5.81957 -13.202
43.5811 5.81428 -13.3186
43.9087 5.80884 -13.4362
44.2388 5.80324 -13.5549
44.5713 5.79749 -13.6746
44.9064 5.79158 -13.7954
45.244 5.7855 -13.9172
45.5841 5.77925 -14.04
45.9268 5.77283 -14.1639
46.272 5.76622 -14.2889
46.6199 5.75944 -14.4149
46.9703 5.75247 -14.542
47.3234 5.74531 -14.6701
47.6792 5.73795 -14.7992
48.0376 5.73039 -14.9294
48.3987 5.72262 -15.0606
48.7626 5.71464 -15.1929
49.1291 5.70645 -15.3262
49.4984 5.69803 -15.4605
49.8705 5.68939 -15.5958
50.2454 5.68052 -15.7321
50.6232 5.67141 -15.8695
51.0037 5.66205 -16.0078
51.3871 5.65245 -16.1471
51.7734 5.6426 -16.2873
52.1626 5.63249 -16.4286
52.5548 5.62211 -16.5707
52.9499 5.61146 -16.7138
53.3479 5.60054 -16.8578
53.7489 5.58933 -17.0028
54.153 5.57784 -17.1485
54.5601 5.56605 -17.2952
54.9702 5.55397 -17.4427
55.3835 5.54158 -17.591
55.7998 5.52887 -17.7401
56.2193 5.51585 -17.89
56.6419 5.50251 -18.0406
57.0677 5.48883 -18.1919
57.4967 5.47482 -18.3439
57.9289 5.46047 -18.4966
58.3644 5.44577 -18.65
58.8032 5.43072 -18.8039
59.2452 5.4153 -18.9584
59.6906 5.39952 -19.1134
60.1393 5.38337 -19.2689
60.5914 5.36684 -19.4248
61.0469 5.34993 -19.5812
61.5058 5.33263 -19.7379
61.9682 5.31493 -19.895
62.434 5.29683 -20.0523
62.9034 5.27832 -20.2098
63.3763 5.2594 -20.3676
63.8527 5.24007 -20.5254
64.3327 5.22031 -20.6834
64.8163 5.20013 -20.8413
65.3036 5.17951 -20.9992
65.7945 5.15846 -21.1571
66.2891 5.13696 -21.3147
66.7874 5.11502 -21.4722
67.2895 5.09263 -21.6294
67.7953 5.06978 -21.7862
68.305 5.04647 -21.9426
68.8184 5.02271 -22.0985
69.3358 4.99848 -22.2539
69.857 4.97378 -22.4087
70.3822 4.94861 -22.5627
70.9113 4.92297 -22.716
71.4443 4.89686 -22.8684
71.9814 4.87027 -23.02
72.5225 4.8432 -23.1705
73.0677 4.81565 -23.3199
73.617 4.78762 -23.4681
74.1704 4.75911 -23.6151
74.728 4.73013 -23.7608
75.2897 4.70066 -23.9051
75.8557 4.67072 -24.0478
76.426 4.64029 -24.1889
77.0005 4.6094 -24.3284
77.5793 4.57803 -24.4661
78.1625 4.54618 -24.602
78.7501 4.51387 -24.7359
79.3421 4.4811 -24.8677
79.9386 4.44787 -24.9975
80.5395 4.41418 -25.125
81.145 4.38004 -25.2502
81.755 4.34545 -25.3731
82.3695 4.31043 -25.4935
82.9888 4.27497 -25.6112
83.6126 4.23909 -25.7264
84.2412 4.20279 -25.8388
84.8744 4.16607 -25.9484
85.5125 4.12896 -26.055
86.1553 4.09145 -26.1587
86.803 4.05356 -26.2593
87.4555 4.01529 -26.3568
88.113 3.97666 -26.451
88.7754 3.93768 -26.5419
89.4427 3.89836 -26.6294
90.1151 3.8587 -26.7134
90.7925 3.81873 -26.794
91.4751 3.77845 -26.8709
92.1627 3.73789 -26.9441
92.8556 3.69704 -27.0137
93.5536 3.65593 -27.0794
94.2569 3.61456 -27.1413
94.9654 3.57296 -27.1993
95.6793 3.53114 -27.2534
96.3986 3.48912 -27.3035
97.1233 3.4469 -27.3495
97.8534 3.40451 -27.3914
98.589 3.36195 -27.4292
99.3301 3.31926 -27.4629
100.077 3.27644 -27.4923
100.829 3.23351 -27.5176
101.587 3.19049 -27.5386
102.351 3.14739 -27.5554
103.12 3.10423 -27.5679
103.895 3.06104 -27.5761
104.676 3.01781 -27.58
105.463 2.97458 -27.5796
106.256 2.93136 -27.5749
107.055 2.88817 -27.566
107.86 2.84502 -27.5527
108.671 2.80194 -27.5352
109.487 2.75893 -27.5135
110.311 2.71602 -27.4875
111.14 2.67322 -27.4573
111.975 2.63055 -27.4229
112.817 2.58803 -27.3843
113.665 2.54566 -27.3417
114.52 2.50348 -27.295
115.381 2.46149 -27.2442
116.248 2.4197 -27.1894
117.122 2.37814 -27.1307
118.002 2.33682 -27.0681
118.889 2.29576 -27.0017
119.783 2.25496 -26.9315
120.684 2.21444 -26.8576
121.591 2.17421 -26.7801
122.505 2.1343 -26.6989
123.426 2.0947 -26.6142
124.354 2.05544 -26.5261
125.288 2.01651 -26.4346
126.23 1.97795 -26.3399
127.179 1.93975 -26.2419
128.135 1.90192 -26.1407
129.098 1.86448 -26.0365
130.069 1.82744 -25.9293
131.047 1.7908 -25.8192
132.032 1.75457 -25.7063
133.024 1.71876 -25.5907
134.024 1.68338 -25.4725
135.032 1.64843 -25.3517
136.047 1.61392 -25.2284
137.07 1.57986 -25.1027
138.1 1.54625 -24.9748
139.138 1.5131 -24.8447
140.184 1.48041 -24.7125
141.238 1.44818 -24.5782
142.3 1.41642 -24.442
143.37 1.38513 -24.304
144.447 1.35432 -24.1642
145.533 1.32398 -24.0228
146.627 1.29412 -23.8798
147.73 1.26474 -23.7353
148.84 1.23584 -23.5894
149.959 1.20741 -23.4422
151.086 1.17947 -23.2937
152.222 1.15201 -23.1441
153.366 1.12502 -22.9934
154.519 1.09851 -22.8417
155.681 1.07248 -22.6891
156.851 1.04693 -22.5357
158.03 1.02184 -22.3815
159.218 0.997225 -22.2266
160.415 0.973077 -22.0711
161.621 0.949393 -21.9151
162.836 0.926169 -21.7586
164.06 0.903403 -21.6017
165.294 0.88109 -21.4445
166.536 0.859227 -21.287
167.788 0.837809 -21.1293
169.049 0.816832 -20.9715
170.32 0.796291 -20.8135
171.601 0.776182 -20.6556
172.891 0.756499 -20.4977
174.19 0.737238 -20.3398
175.5 0.718393 -20.1821
176.819 0.699959 -20.0246
178.148 0.681931 -19.8673
179.488 0.664302 -19.7103
180.837 0.647068 -19.5537
182.196 0.630223 -19.3974
183.566 0.61376 -19.2415
184.946 0.597674 -19.0861
186.336 0.581959 -18.9312
187.737 0.566609 -18.7768
189.148 0.551618 -18.623
190.57 0.53698 -18.4697
192.003 0.522689 -18.3172
193.446 0.508738 -18.1652
194.9 0.495122 -18.014
196.366 0.481835 -17.8635
197.842 0.468871 -17.7138
199.329 0.456223 -17.5648
200.827 0.443885 -17.4167
202.337 0.431852 -17.2693
203.858 0.420118 -17.1228
205.391 0.408676 -16.9772
206.935 0.39752 -16.8324
208.49 0.386646 -16.6886
210.058 0.376046 -16.5457
211.637 0.365716 -16.4037
213.228 0.355649 -16.2626
214.831 0.34584 -16.1225
216.446 0.336284 -15.9834
218.073 0.326974 -15.8452
219.712 0.317906 -15.7081
221.364 0.309073 -15.5719
223.028 0.300472 -15.4368
224.704 0.292096 -15.3026
226.394 0.28394 -15.1695
228.096 0.275999 -15.0375
229.81 0.268269 -14.9064
231.538 0.260744 -14.7764
233.278 0.253419 -14.6474
235.032 0.246291 -14.5195
236.799 0.239353 -14.3927
238.579 0.232601 -14.2668
240.373 0.226032 -14.1421
242.18 0.21964 -14.0183
244 0.213422 -13.8957
245.834 0.207372 -13.774
247.682 0.201487 -13.6535
249.544 0.195762 -13.5339
251.42 0.190194 -13.4155
253.31 0.184779 -13.298
255.215 0.179512 -13.1816
257.133 0.17439 -13.0662
259.066 0.16941 -12.9519
261.014 0.164567 -12.8386
262.976 0.159859 -12.7263
264.953 0.155281 -12.6151
266.944 0.15083 -12.5048
268.951 0.146503 -12.3956
270.973 0.142297 -12.2874
273.01 0.138208 -12.1801
275.062 0.134234 -12.0739
277.13 0.130371 -11.9686
279.213 0.126617 -11.8644
281.312 0.122968 -11.7611
283.427 0.119421 -11.6588
285.558 0.115975 -11.5574
287.705 0.112626 -11.457
289.867 0.109372 -11.3575
292.046 0.10621 -11.259
294.242 0.103137 -11.1614
296.454 0.100151 -11.0648
298.682 0.0972506 -10.969
300.928 0.0944324 -10.8742
303.19 0.0916943 -10.7803
305.469 0.0890343 -10.6872
307.765 0.0864502 -10.5951
310.079 0.0839398 -10.5039
312.41 0.0815012 -10.4135
314.759 0.0791323 -10.3239
317.125 0.0768313 -10.2353
319.509 0.0745962 -10.1475
321.911 0.0724252 -10.0605
324.331 0.0703165 -9.97437
326.769 0.0682684 -9.88907
329.225 0.0662792 -9.80458
331.7 0.0643473 -9.7209
334.194 0.0624709 -9.63802
336.706 0.0606487 -9.55594
339.237 0.058879 -9.47465
341.787 0.0571603 -9.39413
344.357 0.0554913 -9.31439
346.945 0.0538705 -9.23541
349.553 0.0522966 -9.15719
352.181 0.0507682 -9.07971
354.829 0.0492841 -9.00298
357.496 0.0478429 -8.92698
360.184 0.0464435 -8.85171
362.891 0.0450847 -8.77715
365.619 0.0437653 -8.7033
368.368 0.0424841 -8.63016
371.137 0.0412402 -8.55772
373.927 0.0400325 -8.48596
376.738 0.0388598 -8.41489
379.57 0.0377212 -8.34448
382.423 0.0366158 -8.27475
385.298 0.0355425 -8.20568
388.195 0.0345005 -8.13726
391.113 0.0334888 -8.06948
394.053 0.0325067 -8.00235
397.015 0.0315531 -7.93584
400 0.0306274 -7.86997
